19.06.2025; 03:07; Start Datenerfassung

Zeit	Ausgangsspannung Brückenverstärker
[s]	[V]
0,000	0,129995
0,209	0,130324
0,418	0,130324
0,626	0,130324
0,835	0,131311
1,044	0,131640
1,253	0,132298
1,461	0,132955
1,670	0,131640
1,878	0,133284
2,086	0,133613
2,294	0,132626
2,502	0,133284
2,709	0,133613
2,918	0,134600
3,127	0,134600
3,335	0,136573
3,543	0,135257
3,751	0,135257
3,960	0,135586
4,168	0,136902
4,376	0,137231
4,584	0,136902
4,792	0,137560
5,000	0,138546
5,209	0,138217
5,417	0,138875
5,625	0,137889
5,833	0,139204
6,041	0,139862
6,249	0,140191
6,457	0,140520
6,665	0,139862
6,874	0,141506
7,082	0,140848
7,290	0,140848
7,498	0,141506
7,706	0,141835
7,916	0,142164
8,124	0,142164
8,332	0,142493
8,540	0,143479
8,748	0,143808
8,957	0,144137
9,165	0,144795
9,373	0,144137
9,581	0,144795
9,789	0,145124
9,997	0,144795
10,205	0,146110
10,414	0,145453
10,622	0,146768
10,831	0,146439
11,039	0,147426
11,247	0,147097
11,455	0,147755
11,663	0,148084
11,871	0,148084
12,079	0,148084
12,287	0,149070
12,495	0,149399
12,704	0,149728
12,913	0,150057
13,121	0,150057
13,329	0,151373
13,537	0,151044
13,745	0,150386
13,954	0,151701
14,163	0,151701
14,372	0,157621
14,580	0,136244
14,788	0,126378
14,996	0,103685
15,204	0,101054
15,413	0,124404
15,621	0,181958
15,830	0,242801
16,038	0,263191
16,246	0,263191
16,454	0,261876
16,663	0,263849
16,872	0,267138
17,080	0,266809
17,289	0,266480
17,497	0,264507
17,706	0,264507
17,914	0,264836
18,123	0,264178
18,331	0,266151
18,539	0,265822
18,747	0,265165
18,955	0,263849
19,163	0,264836
19,371	0,263849
19,579	0,263520
19,788	0,263849
19,996	0,264507
20,204	0,263849
20,413	0,263849
20,621	0,264836
20,829	0,263191
21,037	0,264178
21,244	0,264178
21,452	0,264178
21,661	0,265165
21,869	0,266480
22,077	0,265822
22,285	0,265822
22,493	0,265494
22,701	0,265822
22,910	0,266809
23,118	0,266480
23,327	0,265822
23,535	0,266809
23,743	0,266809
23,951	0,266809
24,159	0,266480
24,367	0,267138
24,575	0,267796
24,783	0,267796
24,991	0,268782
25,199	0,268453
25,407	0,268782
25,615	0,268782
25,824	0,269440
26,032	0,270098
26,241	0,269769
26,449	0,270098
26,657	0,268782
26,865	0,269111
27,073	0,271085
27,281	0,272071
27,489	0,270427
27,697	0,271413
27,906	0,270756
28,114	0,272400
28,322	0,272400
28,530	0,273058
28,738	0,272729
28,947	0,272729
29,155	0,273716
29,363	0,273387
29,571	0,273387
29,779	0,274044
29,987	0,274044
30,195	0,274373
30,403	0,274373
30,611	0,274044
30,819	0,275360
31,027	0,274702
31,235	0,275689
31,443	0,276675
31,651	0,276675
31,859	0,276347
32,067	0,276347
32,275	0,277333
32,483	0,277662
32,692	0,277333
32,900	0,277333
33,108	0,277333
33,316	0,277991
33,524	0,278320
33,732	0,278978
33,941	0,280293
34,150	0,209584
34,358	0,097765
34,566	0,107961
34,774	0,173079
34,983	0,195771
35,191	0,192154
35,400	0,191825
35,609	0,187878
35,818	0,185905
36,027	0,185247
36,235	0,183932
36,444	0,182945
36,653	0,182287
36,861	0,183603
37,069	0,181958
37,277	0,183274
37,485	0,182945
37,693	0,182287
37,901	0,182945
38,109	0,182945
38,318	0,182945
38,527	0,182616
38,735	0,182287
38,944	0,182616
39,152	0,182945
39,360	0,183932
39,568	0,182945
39,776	0,183274
39,984	0,183932
40,192	0,183603
40,401	0,184260
40,610	0,184260
40,819	0,184918
41,028	0,183603
41,237	0,184918
41,445	0,184589
41,653	0,185247
41,862	0,184918
42,071	0,184918
42,279	0,185576
42,487	0,185905
42,696	0,185247
42,905	0,185247
43,113	0,186891
43,321	0,186891
43,529	0,186234
43,737	0,187549
43,945	0,186563
44,153	0,186891
44,362	0,187220
44,571	0,187220
44,779	0,186891
44,987	0,187549
45,195	0,187878
45,403	0,187878
45,612	0,188865
45,821	0,188536
46,030	0,189194
46,239	0,188536
46,447	0,189851
46,655	0,189194
46,864	0,188536
47,073	0,189194
47,281	0,190838
47,489	0,185247
47,697	0,273387
47,905	0,370077
48,113	0,379615
48,321	0,378628
48,529	0,374024
48,737	0,360868
48,946	0,354620
49,154	0,357251
49,362	0,352318
49,571	0,349358
49,779	0,341136
49,987	0,340149
50,195	0,336531
50,404	0,333572
50,613	0,334558
50,821	0,332585
51,029	0,327323
51,237	0,326994
51,445	0,323047
51,653	0,324363
51,862	0,325021
52,070	0,318772
52,279	0,318772
52,488	0,317456
52,696	0,317128
52,904	0,319430
53,112	0,314825
53,320	0,314825
53,528	0,313510
53,736	0,312523
53,944	0,314825
54,152	0,314497
54,360	0,311537
54,568	0,310550
54,776	0,308248
54,984	0,312523
55,192	0,311537
55,401	0,308248
55,609	0,308248
55,817	0,306603
56,026	0,309234
56,234	0,309892
56,443	0,307261
56,651	0,306603
56,859	0,305946
57,068	0,305617
57,277	0,307261
57,486	0,305617
57,694	0,304959
57,902	0,304959
58,111	0,304630
58,319	0,307590
58,527	0,306603
58,736	0,305946
58,944	0,305617
59,152	0,303315
59,360	0,305288
59,568	0,306603
59,777	0,304301
59,985	0,304301
60,193	0,303315
60,401	0,304959
60,609	0,305946
60,818	0,303972
61,026	0,304959
61,235	0,303972
61,443	0,305288
61,651	0,305617
61,860	0,304959
62,068	0,304959
62,276	0,304630
62,485	0,305946
62,693	0,305946
62,901	0,304301
63,109	0,306275
63,317	0,304959
63,525	0,305946
63,733	0,305617
63,941	0,306932
64,149	0,305288
64,357	0,306275
64,565	0,306275
64,774	0,306603
64,982	0,305946
65,190	0,306275
65,399	0,306932
65,608	0,306932
65,816	0,305946
66,024	0,306603
66,233	0,307261
66,441	0,307261
66,650	0,307261
66,859	0,306932
67,068	0,308248
67,277	0,308906
67,486	0,309234
67,694	0,307590
67,903	0,308248
68,111	0,308906
68,319	0,308577
68,527	0,308906
68,735	0,309234
68,943	0,308906
69,151	0,308906
69,359	0,282266
69,567	0,169461
69,775	0,160910
69,983	0,163212
70,191	0,161239
70,399	0,181629
70,607	0,227672
70,816	0,210242
71,024	0,209913
71,233	0,209913
71,442	0,203993
71,650	0,203664
71,859	0,202349
72,067	0,202349
72,276	0,202349
72,484	0,202020
72,693	0,202020
72,901	0,201362
73,109	0,201691
73,317	0,202349
73,525	0,202349
73,733	0,201362
73,941	0,202349
74,150	0,202678
74,359	0,202020
74,567	0,202678
74,775	0,202678
74,983	0,202349
75,192	0,203335
75,400	0,203335
75,609	0,202349
75,816	0,203993
76,024	0,202678
76,232	0,202349
76,440	0,203664
76,648	0,202678
76,856	0,203007
77,064	0,202678
77,272	0,203335
77,480	0,203664
77,689	0,203007
77,897	0,203664
78,105	0,203993
78,313	0,205309
78,521	0,203664
78,729	0,203664
78,937	0,204980
79,146	0,203993
79,355	0,204651
79,564	0,204651
79,772	0,204651
79,980	0,204322
80,188	0,205309
80,396	0,205309
80,604	0,205638
80,813	0,205966
81,021	0,205638
81,232	0,205966
81,441	0,205966
81,649	0,206295
81,857	0,205966
82,066	0,205966
82,274	0,206295
82,482	0,206953
82,690	0,206953
82,899	0,207940
83,107	0,206953
83,315	0,205309
83,523	0,206295
83,731	0,248721
83,940	0,365473
84,148	0,371721
84,356	0,369090
84,564	0,364815
84,772	0,364486
84,980	0,361855
85,188	0,360868
85,396	0,356593
85,604	0,355935
85,813	0,355606
86,021	0,360211
86,229	0,359882
86,437	0,357251
86,646	0,356264
86,855	0,357251
87,064	0,356264
87,272	0,356593
87,480	0,356922
87,688	0,356264
87,897	0,354620
88,106	0,356922
88,314	0,357580
88,523	0,356264
88,732	0,356593
88,940	0,355935
89,148	0,357909
89,356	0,359553
89,564	0,357909
89,772	0,357251
89,981	0,356593
90,189	0,356593
90,397	0,358237
90,605	0,357251
90,813	0,355606
91,022	0,354949
91,231	0,354949
91,439	0,356593
91,647	0,355606
91,856	0,353962
92,064	0,354620
92,272	0,354291
92,480	0,355606
92,688	0,353962
92,896	0,354291
93,104	0,354291
93,312	0,353304
93,521	0,355278
93,729	0,354620
93,938	0,354620
94,147	0,354291
94,356	0,355278
94,565	0,354291
94,773	0,355278
94,981	0,354291
95,189	0,354291
95,397	0,355606
95,605	0,353962
95,813	0,354949
96,022	0,355278
96,230	0,354620
96,439	0,353962
96,647	0,353962
96,855	0,354949
97,063	0,354620
97,272	0,355278
97,481	0,355278
97,689	0,354620
97,897	0,355278
98,105	0,356593
98,313	0,355606
98,521	0,356264
98,729	0,356264
98,938	0,355935
99,146	0,356593
99,354	0,354949
99,562	0,356264
99,770	0,355606
99,979	0,355935
100,188	0,356593
100,396	0,356922
100,604	0,356593
100,813	0,356593
101,022	0,357251
101,233	0,357909
101,441	0,357251
101,649	0,357580
101,857	0,357251
102,066	0,356922
102,275	0,357251
102,483	0,357580
102,691	0,358566
102,899	0,358237
103,107	0,358566
103,316	0,358237
103,524	0,358566
103,732	0,358566
103,941	0,358895
104,149	0,357909
104,357	0,358566
104,566	0,358237
104,774	0,359224
104,983	0,359553
105,190	0,359553
105,398	0,360211
105,606	0,359224
105,814	0,359224
106,023	0,359882
106,231	0,360211
106,439	0,360540
106,647	0,360211
106,855	0,361197
107,063	0,360540
107,272	0,360868
107,481	0,360540
107,689	0,361197
107,897	0,360868
108,105	0,361526
108,314	0,360868
108,522	0,361526
108,730	0,361855
108,939	0,360540
109,148	0,361526
109,356	0,362513
109,564	0,361855
109,772	0,361855
109,980	0,364486
110,189	0,336531
110,398	0,223397
110,607	0,192154
110,815	0,187220
111,024	0,221424
111,233	0,209913
111,441	0,207611
111,649	0,206624
111,857	0,203007
112,065	0,203007
112,273	0,202020
112,482	0,201691
112,690	0,201033
112,898	0,200376
113,106	0,200376
113,314	0,200047
113,522	0,201362
113,730	0,200704
113,938	0,199718
114,147	0,200376
114,355	0,199718
114,564	0,200376
114,772	0,200376
114,980	0,200047
115,188	0,200047
115,397	0,200376
115,605	0,200376
115,813	0,200376
116,022	0,200047
116,231	0,200704
116,439	0,201362
116,647	0,200047
116,855	0,201033
117,063	0,201033
117,271	0,201362
117,479	0,201362
117,688	0,200047
117,896	0,201033
118,104	0,201362
118,312	0,201033
118,520	0,201033
118,728	0,201362
118,937	0,201691
119,145	0,201362
119,352	0,202020
119,560	0,202020
119,768	0,201691
119,977	0,202349
120,185	0,201691
120,394	0,202349
120,603	0,202020
120,811	0,202678
121,019	0,202349
121,228	0,202020
121,436	0,202678
121,644	0,202678
121,852	0,202678
122,061	0,203007
122,270	0,202678
122,479	0,202349
122,688	0,202678
122,896	0,203335
123,104	0,203993
123,312	0,204322
123,521	0,203007
123,728	0,203664
123,937	0,203335
124,146	0,203007
124,354	0,203335
124,563	0,204651
124,771	0,203993
124,980	0,203007
125,188	0,203335
125,396	0,204651
125,604	0,204322
125,813	0,204651
126,022	0,204651
126,230	0,203335
126,438	0,205309
126,646	0,205309
126,854	0,205309
127,062	0,204322
127,270	0,205638
127,478	0,205309
127,686	0,205966
127,895	0,205966
128,103	0,204980
128,311	0,205309
128,519	0,205309
128,727	0,207282
128,936	0,207611
129,145	0,210900
129,353	0,266151
129,561	0,367775
129,769	0,407898
129,978	0,450652
130,186	0,441115
130,394	0,438813
130,602	0,437168
130,811	0,426644
131,020	0,418751
131,228	0,415462
131,436	0,413818
131,644	0,409214
131,852	0,404609
132,061	0,397703
132,269	0,400334
132,478	0,399676
132,686	0,392770
132,894	0,392112
133,102	0,388823
133,311	0,380601
133,519	0,381588
133,727	0,378628
133,935	0,375339
134,143	0,374681
134,352	0,369748
134,560	0,374024
134,768	0,372050
134,976	0,368433
135,184	0,367117
135,391	0,364157
135,600	0,366459
135,808	0,367446
136,016	0,363171
136,225	0,362842
136,433	0,360868
136,642	0,360211
136,850	0,362513
137,058	0,359553
137,266	0,358895
137,475	0,357909
137,683	0,354620
137,891	0,358566
138,099	0,358566
138,308	0,355935
138,516	0,355935
138,724	0,352646
138,933	0,355606
139,142	0,354949
139,350	0,352318
139,559	0,353304
139,768	0,350673
139,977	0,351660
140,185	0,351660
140,393	0,350344
140,602	0,350673
140,811	0,350015
141,020	0,349358
141,228	0,350344
141,436	0,348700
141,645	0,349687
141,854	0,349029
142,062	0,346727
142,270	0,350344
142,478	0,348042
142,687	0,349029
142,895	0,348042
143,103	0,346069
143,311	0,347384
143,519	0,347384
143,728	0,348042
143,936	0,348042
144,144	0,346069
144,352	0,346727
144,560	0,347384
144,768	0,346398
144,977	0,346069
145,185	0,346398
145,393	0,346398
145,601	0,346727
145,809	0,346069
146,018	0,346727
146,226	0,346727
146,434	0,345082
146,642	0,346069
146,850	0,346069
147,058	0,346727
147,266	0,346069
147,474	0,344753
147,683	0,346398
147,892	0,345740
148,100	0,345740
148,308	0,346069
148,516	0,345411
148,724	0,346398
148,932	0,347384
149,140	0,346398
149,347	0,346727
149,555	0,345411
149,764	0,346069
149,973	0,345740
150,181	0,346398
150,389	0,345740
150,597	0,345740
150,805	0,346069
151,014	0,346398
151,222	0,346398
151,430	0,345740
151,638	0,346069
151,846	0,346069
152,054	0,345411
152,263	0,345411
152,471	0,347056
152,679	0,347056
152,887	0,345082
153,095	0,346398
153,303	0,345411
153,511	0,345740
153,719	0,347384
153,927	0,347056
154,135	0,346069
154,343	0,346727
154,552	0,346727
154,760	0,347056
154,968	0,348042
155,176	0,347056
155,384	0,346727
155,592	0,346398
155,800	0,346727
156,008	0,347056
156,216	0,346069
156,425	0,347713
156,633	0,347384
156,841	0,347056
157,050	0,347056
157,259	0,347384
157,467	0,347713
157,675	0,347713
157,883	0,347384
158,091	0,347713
158,299	0,348042
158,507	0,347384
158,715	0,347713
158,923	0,347713
159,131	0,348042
159,339	0,347384
159,548	0,348042
159,756	0,348042
159,965	0,348042
160,173	0,348700
160,381	0,348700
160,589	0,348371
160,797	0,348371
161,005	0,350015
161,215	0,349358
161,423	0,348700
161,631	0,348042
161,840	0,348700
162,049	0,348700
162,257	0,347384
162,466	0,350015
162,674	0,349029
162,883	0,349358
163,092	0,348042
163,301	0,348700
163,509	0,349687
163,717	0,348371
163,925	0,349029
164,133	0,348700
164,341	0,349358
164,550	0,349687
164,759	0,350673
164,968	0,349358
165,176	0,349687
165,384	0,349029
165,593	0,349029
165,801	0,348371
166,009	0,349358
166,218	0,350015
166,426	0,350015
166,634	0,350673
166,842	0,351331
167,050	0,350015
167,258	0,349687
167,467	0,351331
167,676	0,350673
167,885	0,350673
168,093	0,349358
168,301	0,350015
168,509	0,349358
168,717	0,351660
168,926	0,351002
169,134	0,350015
169,342	0,351002
169,550	0,351331
169,758	0,351989
169,966	0,351002
170,174	0,351331
170,382	0,352318
170,590	0,350673
170,798	0,351660
171,006	0,351989
171,214	0,351660
171,423	0,351989
171,631	0,350673
171,839	0,352646
172,047	0,351331
172,255	0,351660
172,464	0,352318
172,673	0,352646
172,881	0,352318
173,089	0,351989
173,297	0,352318
173,505	0,351989
173,714	0,351989
173,923	0,351989
174,131	0,353304
174,340	0,352318
174,548	0,353304
174,756	0,353304
174,964	0,352318
175,173	0,353633
175,381	0,352975
175,589	0,353304
175,798	0,352975
176,007	0,353962
176,215	0,353633
176,423	0,353633
176,631	0,353962
176,840	0,352975
177,048	0,354291
177,256	0,352975
177,465	0,353304
177,674	0,354291
177,882	0,354291
178,091	0,353304
178,299	0,353962
178,507	0,354291
178,716	0,354620
178,925	0,353304
179,134	0,352975
179,342	0,354291
179,550	0,353962
179,758	0,354291
179,967	0,355278
180,176	0,353962
180,385	0,354620
180,593	0,354949
180,801	0,354291
181,009	0,353633
181,218	0,354620
181,426	0,354291
181,635	0,355278
181,843	0,355935
182,051	0,355606
182,259	0,355935
182,467	0,355278
182,675	0,355935
182,883	0,355278
183,091	0,355935
183,299	0,356593
183,507	0,356264
183,716	0,354949
183,924	0,355606
184,132	0,355278
184,341	0,356264
184,549	0,355935
184,758	0,356264
184,967	0,355606
185,175	0,356922
185,383	0,356264
185,592	0,356264
185,801	0,356264
186,010	0,356264
186,219	0,356593
186,427	0,356593
186,635	0,356264
186,843	0,357251
187,052	0,355606
187,261	0,357251
187,469	0,356593
187,677	0,356922
187,886	0,357251
188,094	0,357251
188,302	0,357909
188,510	0,357251
188,718	0,357251
188,926	0,358237
189,134	0,356922
189,342	0,357251
189,551	0,303315
189,759	0,206624
189,968	0,241157
190,177	0,279306
190,385	0,269440
190,593	0,252010
190,802	0,249378
191,011	0,246090
191,219	0,245432
191,427	0,244774
191,636	0,245432
191,844	0,245103
192,052	0,244116
192,260	0,244445
192,468	0,244116
192,676	0,243130
192,884	0,243788
193,093	0,242801
193,301	0,243459
193,509	0,242801
193,717	0,243459
193,926	0,243459
194,134	0,242801
194,342	0,243459
194,551	0,243459
194,760	0,242472
194,968	0,243130
195,176	0,243459
195,385	0,243130
195,593	0,243459
195,801	0,242801
196,009	0,242801
196,217	0,243459
196,425	0,242143
196,633	0,242801
196,841	0,244116
197,050	0,243459
197,258	0,243130
197,467	0,242472
197,675	0,243788
197,883	0,243130
198,091	0,243459
198,299	0,243459
198,507	0,243788
198,715	0,243459
198,923	0,243130
199,131	0,242472
199,339	0,243130
199,547	0,243459
199,755	0,243459
199,964	0,242472
200,172	0,243130
200,380	0,243130
200,589	0,242801
200,797	0,243130
201,005	0,244445
201,215	0,243459
201,423	0,243788
201,631	0,243788
201,839	0,242801
202,047	0,243459
202,255	0,243788
202,463	0,243130
202,672	0,243459
202,881	0,243459
203,089	0,244774
203,297	0,244116
203,505	0,243788
203,713	0,243459
203,922	0,242801
204,130	0,242472
204,338	0,243459
204,546	0,242472
204,754	0,243130
204,962	0,242143
205,170	0,241157
205,378	0,242472
205,586	0,242801
205,794	0,241485
206,003	0,242472
206,211	0,241485
206,420	0,242143
206,629	0,241814
206,838	0,242472
207,047	0,241814
207,255	0,242801
207,463	0,242801
207,671	0,242143
207,880	0,241485
208,088	0,242143
208,297	0,241485
208,506	0,241814
208,714	0,241485
208,922	0,241814
209,130	0,241814
209,338	0,240499
209,546	0,239183
209,754	0,241157
209,963	0,241485
210,171	0,241157
210,379	0,239841
210,588	0,240499
210,797	0,240170
211,005	0,240170
211,215	0,239512
211,423	0,241814
211,631	0,240170
211,839	0,240499
212,048	0,240170
212,256	0,241485
212,464	0,241157
212,672	0,240828
212,880	0,239841
213,088	0,241157
213,296	0,240828
213,505	0,241157
213,713	0,241157
213,921	0,240828
214,129	0,241157
214,337	0,243130
214,545	0,235894
214,754	0,235894
214,962	0,238197
215,171	0,236552
215,379	0,236223
215,587	0,235894
215,796	0,236223
216,004	0,235566
216,213	0,236881
216,421	0,236223
216,629	0,235566
216,837	0,238854
217,045	0,266809
217,253	0,395401
217,461	0,428618
217,670	0,446377
217,879	0,437497
218,087	0,438484
218,296	0,434866
218,504	0,431249
218,712	0,427631
218,921	0,425658
219,129	0,422698
219,338	0,419738
219,546	0,415791
219,754	0,417436
219,963	0,420724
220,172	0,419080
220,380	0,415791
220,588	0,414476
220,797	0,411845
221,005	0,416120
221,213	0,414147
221,421	0,412174
221,630	0,409871
221,838	0,408885
222,046	0,410858
222,255	0,411845
222,464	0,409214
222,672	0,406583
222,880	0,407240
223,088	0,405596
223,297	0,407569
223,505	0,404938
223,713	0,403952
223,921	0,402636
224,129	0,401321
224,337	0,402636
224,545	0,401649
224,753	0,401321
224,962	0,400334
225,170	0,399018
225,378	0,399676
225,586	0,400005
225,794	0,397374
226,002	0,398361
226,211	0,397374
226,419	0,396716
226,628	0,397703
226,836	0,396059
227,044	0,396387
227,252	0,395730
227,460	0,395401
227,669	0,396387
227,877	0,395072
228,086	0,395730
228,294	0,394085
228,502	0,393756
228,710	0,394414
228,918	0,393756
229,126	0,393099
229,334	0,392770
229,542	0,390796
229,751	0,393756
229,960	0,393756
230,168	0,392770
230,376	0,392441
230,584	0,392770
230,793	0,393099
231,001	0,392770
231,209	0,392112
231,417	0,391454
231,626	0,391783
231,835	0,391125
232,043	0,392112
232,251	0,391454
232,460	0,390796
232,668	0,390796
232,876	0,391454
233,085	0,391125
233,293	0,391125
233,501	0,390796
233,709	0,391454
233,917	0,391454
234,125	0,391125
234,333	0,391454
234,541	0,390468
234,749	0,391454
234,957	0,390468
235,165	0,390468
235,374	0,391454
235,582	0,389810
235,791	0,390139
235,999	0,389810
236,207	0,389810
236,415	0,391125
236,624	0,390796
236,833	0,390139
237,041	0,390139
237,249	0,389810
237,457	0,390468
237,665	0,391125
237,873	0,389810
238,082	0,390139
238,291	0,390468
238,499	0,390468
238,707	0,391125
238,915	0,389481
239,123	0,389152
239,332	0,390139
239,540	0,388494
239,748	0,389810
239,956	0,389481
240,164	0,389481
240,372	0,390468
240,580	0,389481
240,788	0,390139
240,997	0,389810
241,205	0,390139
241,413	0,389152
241,621	0,389810
241,830	0,390468
242,038	0,389810
242,246	0,389810
242,454	0,389152
242,662	0,389481
242,870	0,389481
243,079	0,389481
243,287	0,389810
243,496	0,390139
243,704	0,390139
243,913	0,389481
244,121	0,390139
244,329	0,389152
244,537	0,390139
244,746	0,389481
244,954	0,390139
245,162	0,390139
245,370	0,390796
245,578	0,390139
245,786	0,390468
245,994	0,389810
246,202	0,390139
246,409	0,390139
246,617	0,390796
246,825	0,390139
247,033	0,389810
247,241	0,389810
247,450	0,389810
247,658	0,390139
247,867	0,389810
248,076	0,389810
248,284	0,389810
248,492	0,390468
248,700	0,389810
248,907	0,390139
249,116	0,389481
249,324	0,390139
249,532	0,390139
249,740	0,390468
249,949	0,389810
250,157	0,390796
250,366	0,390796
250,574	0,390796
250,782	0,391125
250,990	0,389481
251,198	0,390468
251,407	0,390796
251,615	0,391125
251,823	0,390468
252,031	0,391125
252,239	0,389810
252,447	0,390796
252,656	0,390796
252,864	0,391125
253,072	0,391125
253,281	0,390139
253,489	0,391454
253,697	0,390468
253,905	0,391454
254,114	0,390796
254,322	0,390139
254,530	0,390139
254,738	0,390139
254,947	0,390468
255,155	0,390796
255,364	0,390468
255,572	0,390796
255,780	0,390468
255,988	0,389810
256,196	0,391454
256,404	0,391454
256,612	0,390796
256,820	0,390139
257,028	0,391125
257,236	0,390139
257,445	0,389810
257,654	0,390796
257,863	0,390796
258,071	0,390796
258,279	0,391125
258,487	0,390468
258,696	0,391125
258,905	0,390796
259,113	0,390468
259,321	0,389481
259,529	0,391125
259,737	0,390796
259,945	0,390796
260,153	0,391125
260,361	0,391783
260,569	0,390468
260,778	0,391125
260,986	0,390796
261,194	0,390796
261,402	0,390468
261,610	0,391125
261,818	0,391125
262,026	0,390468
262,234	0,390139
262,442	0,389810
262,650	0,391783
262,858	0,390468
263,066	0,391125
263,274	0,391454
263,482	0,391454
263,690	0,390796
263,898	0,391125
264,107	0,391454
264,315	0,390796
264,523	0,390468
264,731	0,390468
264,939	0,391454
265,148	0,391125
265,356	0,390468
265,565	0,390468
265,774	0,391454
265,982	0,382903
266,190	0,250036
266,398	0,231290
266,607	0,246747
266,816	0,253654
267,024	0,254969
267,234	0,249050
267,442	0,242472
267,650	0,239183
267,859	0,236881
268,068	0,236881
268,276	0,235894
268,484	0,235237
268,693	0,234250
268,901	0,234579
269,109	0,234250
269,317	0,233592
269,526	0,233921
269,734	0,232935
269,942	0,232935
270,151	0,234579
270,360	0,233921
270,568	0,233263
270,776	0,233263
270,984	0,232277
271,192	0,232935
271,401	0,233263
271,609	0,233263
271,818	0,233263
272,026	0,232606
272,234	0,232277
272,442	0,233592
272,650	0,232277
272,858	0,232935
273,066	0,231619
273,274	0,231948
273,482	0,231948
273,690	0,233263
273,898	0,231619
274,106	0,231948
274,314	0,232606
274,522	0,232606
