19.06.2025; 03:29; Start Datenerfassung

Zeit	Ausgangsspannung Br�ckenverst�rker
[s]	[V]
0,000	-0,052532
0,209	-0,053190
0,418	-0,051546
0,626	-0,052861
0,834	-0,051875
1,043	-0,051546
1,251	-0,052532
1,459	-0,053519
1,668	-0,054506
1,877	-0,053848
2,085	-0,054177
2,294	-0,053190
2,502	-0,055163
2,710	-0,051546
2,918	-0,053848
3,126	-0,056808
3,333	-0,052861
3,541	-0,054506
3,750	-0,053848
3,959	-0,055492
4,167	-0,054506
4,376	-0,055163
4,584	-0,055492
4,793	-0,054506
5,001	-0,055163
5,209	-0,057137
5,418	-0,057137
5,626	-0,054835
5,834	-0,057466
6,043	-0,057466
6,251	-0,055492
6,459	-0,055163
6,667	-0,057466
6,875	-0,057137
7,083	-0,056479
7,291	-0,056808
7,499	-0,057794
7,707	-0,057794
7,916	-0,057137
8,125	-0,057137
8,333	-0,057137
8,542	-0,059439
8,750	-0,057794
8,959	-0,057466
9,168	-0,056479
9,377	-0,057137
9,585	-0,056150
9,793	-0,056808
10,001	-0,058781
10,210	-0,057466
10,419	-0,059110
10,627	-0,057466
10,835	-0,058452
11,044	-0,058123
11,252	-0,058452
11,460	-0,060426
11,669	-0,058123
11,877	-0,059110
12,085	-0,057794
12,293	-0,057794
12,501	-0,060754
12,710	-0,056808
12,919	-0,059768
13,128	-0,058781
13,336	-0,057794
13,545	-0,059768
13,754	-0,060097
13,962	-0,060426
14,171	-0,060426
14,379	-0,058452
14,587	-0,061412
14,795	-0,059768
15,003	-0,061741
15,211	-0,061083
15,419	-0,059439
15,627	-0,061412
15,835	-0,060754
16,043	-0,059439
16,251	-0,061083
16,459	-0,059768
16,667	-0,059110
16,876	-0,060097
17,085	-0,060426
17,293	-0,061741
17,502	-0,061412
17,710	-0,060754
17,918	-0,062399
18,126	-0,063385
18,334	-0,061083
18,543	-0,063057
18,752	-0,060754
18,960	-0,062070
19,169	-0,020302
19,377	0,439471
19,585	0,826561
19,794	0,935091
20,002	0,966335
20,210	0,955811
20,418	0,949562
20,626	0,949891
20,834	0,948904
21,042	0,950548
21,250	0,951535
21,458	0,949233
21,666	0,949562
21,874	0,950220
22,083	0,950220
22,292	0,953180
22,501	0,950877
22,709	0,949562
22,917	0,950877
23,125	0,948575
23,333	0,949891
23,542	0,949891
23,750	0,949891
23,958	0,949562
24,167	0,949562
24,376	0,949562
24,585	0,950548
24,793	0,950548
25,001	0,950220
25,210	0,950220
25,418	0,947260
25,626	0,949233
25,834	0,951206
26,042	0,948904
26,250	0,956797
26,459	0,453612
26,667	-0,059439
26,875	-0,061083
27,083	-0,064043
27,291	-0,064701
27,499	-0,062728
27,708	-0,065688
27,916	-0,064043
28,124	-0,065030
28,332	-0,065688
28,540	-0,067332
28,748	-0,063714
28,956	-0,064701
29,164	-0,066345
29,372	-0,066674
29,580	-0,064372
29,789	-0,065688
29,997	-0,068319
30,205	-0,066674
30,413	-0,067003
30,621	-0,067661
30,830	-0,067661
31,039	-0,067990
31,247	-0,068976
31,455	-0,068647
31,664	-0,067990
31,873	-0,068647
32,081	-0,068647
32,289	-0,067332
32,497	-0,069305
32,705	-0,068976
32,913	-0,069963
33,121	-0,066345
33,329	-0,068319
33,537	-0,068647
33,746	-0,068647
33,955	-0,069305
34,163	-0,067990
34,372	-0,069305
34,581	-0,070292
34,790	-0,065688
34,999	-0,065359
35,209	0,000417
35,417	0,507877
35,625	0,911083
35,833	0,953837
36,042	0,946931
36,250	0,944629
36,459	0,941669
36,667	0,941669
36,876	0,941669
37,084	0,940353
37,292	0,942327
37,500	0,941011
37,708	0,940682
37,916	0,941340
38,124	0,941669
38,332	0,941340
38,541	0,941340
38,749	0,941998
38,958	0,941998
39,167	0,939367
39,376	0,940353
39,584	0,939695
39,793	0,940353
40,001	0,943313
40,209	0,940024
40,417	0,939695
40,625	0,939695
40,833	0,939695
41,042	0,942327
41,250	0,941669
41,459	0,940353
41,667	0,939367
41,875	0,941011
42,083	0,940024
42,292	0,939367
42,500	0,939038
42,709	0,939038
42,916	0,938709
43,124	0,938709
43,332	0,940024
43,540	0,938380
43,748	0,938380
43,957	0,942984
44,165	0,648638
44,373	0,016203
44,581	-0,071279
44,789	-0,071607
44,998	-0,069963
45,208	-0,071936
45,416	-0,072265
45,624	-0,071936
45,833	-0,072594
46,041	-0,073910
46,249	-0,073252
46,457	-0,072923
46,665	-0,073252
46,873	-0,073252
47,082	-0,072923
47,290	-0,074896
47,498	-0,073252
47,706	-0,075225
47,915	-0,075225
48,124	-0,074238
48,332	-0,074238
48,540	-0,074896
48,748	-0,073252
48,957	-0,072265
49,166	-0,073910
49,374	-0,074896
49,582	-0,078185
49,790	-0,074567
49,999	-0,075225
50,207	-0,075883
50,415	-0,074896
50,623	-0,075883
50,831	-0,075883
51,039	-0,075883
51,247	-0,074896
51,455	-0,074567
51,664	-0,076541
51,872	-0,074567
52,081	-0,075883
52,290	-0,076869
52,498	-0,058781
52,706	-0,014054
52,914	0,440786
53,122	0,862080
53,330	0,948246
53,538	0,938380
53,746	0,935420
53,954	0,936407
54,162	0,936736
54,370	0,937064
54,578	0,937722
54,786	0,938709
54,994	0,936407
55,203	0,937393
55,412	0,936407
55,621	0,938709
55,829	0,939367
56,037	0,937393
56,246	0,937722
56,454	0,936407
56,662	0,937722
56,871	0,938051
57,079	0,936736
57,287	0,935420
57,495	0,938380
57,703	0,935749
57,912	0,936736
58,121	0,937064
58,329	0,936407
58,537	0,937064
58,745	0,934762
58,953	0,937722
59,161	0,937393
59,369	0,935091
59,578	0,937722
59,786	0,935420
59,995	0,934105
60,203	0,934762
60,411	0,938051
60,619	0,935749
60,827	0,935091
61,035	0,934762
61,243	0,933447
61,452	0,933776
61,660	0,935420
61,868	0,935091
62,076	0,936407
62,285	0,911741
62,493	0,151373
62,701	-0,072923
62,909	-0,075225
63,117	-0,076541
63,325	-0,076541
63,533	-0,075225
63,742	-0,078514
63,950	-0,074896
64,158	-0,075883
64,366	-0,077198
64,574	-0,077198
64,782	-0,078514
64,990	-0,077198
65,200	-0,077527
65,409	-0,077527
65,617	-0,076212
65,825	-0,078843
66,033	-0,079500
66,241	-0,078843
66,450	-0,078514
66,658	-0,079172
66,866	-0,078843
67,074	-0,079500
67,282	-0,079500
67,489	-0,077856
67,697	-0,078185
67,905	-0,078514
68,114	-0,079829
68,322	-0,078514
68,531	-0,080158
68,740	-0,081145
68,948	-0,079172
69,156	-0,079500
69,365	-0,079500
69,573	-0,081474
69,781	-0,079500
69,989	-0,081803
70,197	-0,079172
70,405	-0,082132
70,613	-0,081474
70,822	-0,081145
71,030	-0,082460
71,239	-0,079829
71,447	-0,082789
71,655	-0,081145
71,863	-0,080816
72,071	-0,080816
72,279	-0,081145
72,487	-0,082132
72,696	-0,011423
72,904	0,382903
73,112	0,906479
73,320	0,924238
73,529	0,928185
73,738	0,928842
73,947	0,926540
74,155	0,923909
74,363	0,927527
74,571	0,928185
74,779	0,929171
74,987	0,929171
75,195	0,926540
75,404	0,927527
75,612	0,926211
75,821	0,928514
76,029	0,926540
76,237	0,925225
76,445	0,926211
76,653	0,927198
76,861	0,927856
77,069	0,927856
77,277	0,927198
77,485	0,924896
77,694	0,924567
77,903	0,927856
78,111	0,924896
78,319	0,928842
78,528	0,926211
78,737	0,925883
78,946	0,928514
79,154	0,925883
79,362	0,928514
79,570	0,925225
79,779	0,928514
79,987	0,926869
80,196	0,926540
80,404	0,925883
80,612	0,924567
80,820	0,924567
81,028	0,924567
81,236	0,925225
81,444	0,925225
81,652	0,924567
81,861	0,922594
82,070	0,924238
82,278	0,926869
82,486	0,924896
82,694	0,923580
82,903	0,924567
83,111	0,924896
83,320	0,923252
83,528	0,923909
83,737	0,923580
83,946	0,922923
84,154	0,923580
84,362	0,922923
84,570	0,924567
84,778	0,924238
84,987	0,909439
85,195	0,301341
85,403	-0,053190
85,612	-0,086736
85,821	-0,086736
86,029	-0,086736
86,238	-0,094300
86,446	-0,098904
86,655	-0,098575
86,863	-0,096931
87,071	-0,097260
87,279	-0,099562
87,487	-0,098575
87,695	-0,097589
87,903	-0,098247
88,111	-0,098575
88,319	-0,099233
88,527	-0,099233
88,735	-0,099233
88,944	-0,100220
89,153	-0,099562
89,362	-0,100549
89,571	-0,097918
89,779	-0,096273
89,988	-0,096931
90,196	-0,097918
90,404	-0,097260
90,612	-0,099233
90,821	-0,099891
91,029	-0,098904
91,237	-0,098904
91,446	-0,100220
91,654	-0,100878
91,862	-0,101864
92,070	-0,099891
92,278	-0,099891
92,486	-0,100549
92,694	-0,099233
92,903	-0,099891
93,111	-0,100549
93,320	-0,102193
93,529	-0,102522
93,738	-0,099233
93,946	-0,099562
94,155	-0,100549
94,363	-0,069634
94,571	0,236552
94,779	0,794660
94,988	0,931145
95,196	0,909439
95,404	0,913056
95,612	0,911412
95,820	0,908781
96,028	0,906479
96,236	0,908452
96,445	0,908781
96,653	0,910096
96,862	0,910096
97,070	0,910096
97,278	0,907136
97,486	0,907136
97,694	0,908781
97,902	0,910096
98,111	0,907465
98,319	0,907465
98,527	0,907136
98,736	0,906479
98,944	0,907465
99,153	0,907136
99,361	0,907136
99,570	0,908123
99,779	0,908452
99,987	0,907794
100,196	0,907465
100,404	0,907136
100,612	0,908452
100,821	0,906150
101,030	0,906479
101,238	0,908781
101,447	0,906479
101,655	0,906150
101,863	0,908781
102,071	0,909110
102,279	0,907794
102,488	0,906479
102,697	0,906150
102,905	0,906808
103,113	0,906150
103,321	0,908452
103,529	0,907136
103,737	0,906808
103,945	0,905821
104,153	0,905821
104,361	0,905821
104,569	0,906808
104,777	0,905163
104,985	0,904834
105,193	0,905821
105,402	0,905821
105,611	0,906808
105,819	0,905821
106,027	0,904505
106,234	0,904505
106,442	0,904834
106,650	0,903848
106,859	0,905492
107,068	0,903519
107,277	0,904505
107,485	0,904834
107,693	0,905163
107,901	0,903848
108,109	0,624958
108,318	0,016532
108,525	-0,102193
108,733	-0,107784
108,941	-0,105482
109,149	-0,106797
109,358	-0,108113
109,567	-0,106140
109,775	-0,105153
