19.06.2025; 05:15; Start Datenerfassung

Zeit	Ausgangsspannung Br�ckenverst�rker
[s]	[V]
0,000	0,029358
0,210	0,029687
0,418	0,031332
0,626	0,031332
0,834	0,030674
1,041	0,032647
1,249	0,033305
1,457	0,034292
1,665	0,036265
1,873	0,034621
2,081	0,035278
2,289	0,036265
2,496	0,037580
2,704	0,037580
2,912	0,039554
3,120	0,039225
3,328	0,039883
3,536	0,039554
3,744	0,041198
3,952	0,041856
4,160	0,042514
4,368	0,042514
4,576	0,043171
4,784	0,044816
4,992	0,043829
5,200	0,044158
5,408	0,044816
5,616	0,046460
5,824	0,046789
6,032	0,048105
6,240	0,048105
6,448	0,048762
6,656	0,051064
6,864	0,050078
7,072	0,050736
7,280	0,051064
7,487	0,051722
7,695	0,052380
7,903	0,054353
8,111	0,054024
8,319	0,054353
8,527	0,055340
8,735	0,055998
8,943	0,055998
9,151	0,056984
9,359	0,057313
9,567	0,058300
9,775	0,058300
9,982	0,060273
10,189	0,059944
10,397	0,059944
10,604	0,061260
10,811	0,061917
11,019	0,062246
11,226	0,062246
11,434	0,061917
11,642	0,063562
11,850	0,063562
12,057	0,065864
12,265	0,085926
12,473	0,193140
12,681	0,558196
12,889	0,524979
13,096	0,554907
13,304	0,508864
13,512	0,506562
13,720	0,509193
13,928	0,508535
14,136	0,508535
14,344	0,509522
14,552	0,510837
14,760	0,510837
14,968	0,510837
15,176	0,513139
15,384	0,513468
15,592	0,513797
15,800	0,514455
16,007	0,515442
16,215	0,514455
16,423	0,515113
16,631	0,515770
16,838	0,516757
17,046	0,517415
17,254	0,518401
17,462	0,519059
17,670	0,519059
17,878	0,520046
18,086	0,520375
18,294	0,521033
18,502	0,521690
18,710	0,521690
18,918	0,521361
19,126	0,522348
19,334	0,523664
19,541	0,523992
19,748	0,524650
19,956	0,524321
20,164	0,526295
20,372	0,526623
20,580	0,526952
20,787	0,527281
20,995	0,526623
21,203	0,528926
21,411	0,529255
21,618	0,529255
21,826	0,530241
22,034	0,530899
22,242	0,530899
22,450	0,533201
22,658	0,532872
22,866	0,533530
23,074	0,533201
23,282	0,535174
23,490	0,534845
23,698	0,535503
23,906	0,535832
24,113	0,536490
24,321	0,536819
24,528	0,538134
24,736	0,539450
24,944	0,538792
25,152	0,540436
25,359	0,540108
25,566	0,540765
25,774	0,541094
25,982	0,542081
26,190	0,541094
26,397	0,543067
26,605	0,543067
26,813	0,543396
27,021	0,544712
27,229	0,545041
27,437	0,545370
27,645	0,548987
27,853	2,544625
28,061	3,368797
28,269	3,344789
28,477	3,345446
28,685	3,337882
28,893	3,338869
29,101	3,343144
29,309	3,339527
29,517	3,340842
29,725	3,346762
29,933	3,342158
30,141	3,344131
30,349	3,348077
30,556	3,345446
30,764	3,345775
30,972	3,349722
31,180	3,347749
31,388	3,346762
31,596	3,350380
31,803	3,347749
32,011	3,348406
32,219	3,351695
32,427	3,351037
32,635	3,351037
32,843	3,353668
33,051	3,352353
33,259	3,353339
33,467	3,354984
33,675	3,355642
33,883	3,353339
34,091	3,356299
34,299	3,358273
34,506	3,354984
34,714	3,357944
34,921	3,357286
35,128	3,356957
35,336	3,358273
35,544	3,359917
35,752	3,333607
35,959	3,314532
36,167	3,241192
36,375	3,302692
36,582	3,285590
36,790	3,238889
36,998	3,237574
37,207	3,368139
37,415	3,365179
37,623	3,365179
37,830	3,296114
38,038	3,266186
38,246	3,333936
38,454	3,368139
38,661	3,371757
38,869	3,367152
39,076	3,398725
39,284	3,369126
39,492	3,399711
39,700	3,381294
39,908	3,372743
40,115	3,372086
40,323	3,372414
40,531	3,382610
40,739	3,373401
40,947	3,373072
41,155	3,398067
41,363	3,383925
41,571	3,374388
41,778	3,370441
41,986	3,375703
42,193	3,375703
42,401	3,375046
42,609	3,378005
42,817	3,376032
43,025	3,377019
43,233	3,380636
43,441	3,379650
43,649	3,459239
43,857	2,257514
44,064	0,653242
44,272	0,588782
44,480	0,590426
44,688	0,592399
44,896	0,592070
45,104	0,592070
45,312	0,592070
45,520	0,593386
45,728	0,593386
45,936	0,592728
46,144	0,594373
46,352	0,595359
46,560	0,594701
46,768	0,594373
46,976	0,591742
47,184	0,594044
47,392	0,593057
47,600	0,593386
47,808	0,594701
48,016	0,593715
48,224	0,594701
48,432	0,530241
48,639	0,486829
48,846	0,958770
49,055	1,040004
49,263	0,533530
49,471	0,955811
49,679	0,766047
49,887	1,461955
50,094	1,678687
50,302	1,712890
50,510	1,733281
50,718	1,717165
50,926	1,717165
51,134	1,680331
51,342	1,615213
51,549	1,668163
51,757	1,669807
51,965	1,717165
52,172	1,720125
52,379	1,721441
52,586	1,722099
52,793	1,722428
53,001	1,722099
53,209	1,724072
53,417	1,724072
53,624	1,723414
53,832	1,725387
54,039	1,724730
54,247	1,726045
54,455	1,726045
54,663	1,726703
54,871	1,727361
55,079	1,728676
55,287	1,728676
55,495	1,728676
55,703	1,729334
55,911	1,730321
56,119	1,729992
56,327	1,730321
56,535	1,730978
56,743	1,730978
56,951	1,732294
57,159	1,732623
57,368	1,731307
57,576	1,733281
57,784	1,733281
57,992	1,732294
58,199	1,733938
58,408	1,766826
58,616	1,661256
58,823	0,605554
59,031	0,620354
59,238	0,619696
59,446	0,620683
59,654	0,621341
59,861	0,622985
60,069	0,619367
60,277	0,620025
60,485	0,620683
60,693	0,621669
60,902	0,622656
61,109	0,621669
61,317	0,622327
61,525	0,622656
61,733	0,622327
61,940	0,623643
62,148	0,624958
62,356	0,623972
62,563	0,625945
62,771	0,625287
62,979	0,625945
63,186	0,625945
63,394	0,626603
63,602	0,626603
63,810	0,627589
64,018	1,044937
64,226	1,342572
64,434	1,157413
64,642	1,194577
64,850	1,188328
65,058	1,187999
65,265	1,188986
65,473	1,190959
65,681	1,190301
65,888	1,190630
66,096	1,192603
66,304	1,190959
66,512	1,191617
66,719	1,191617
66,927	1,192275
67,135	1,193261
67,343	1,192932
67,551	1,194577
67,759	1,195563
67,966	1,193590
68,174	1,195892
68,382	1,195563
68,589	1,195234
68,797	1,196879
69,005	1,197208
69,214	1,197537
69,422	1,197208
69,630	1,198523
69,838	1,198523
70,046	1,198523
70,254	1,200825
70,462	1,199510
70,670	1,200168
70,878	1,201154
71,086	1,202141
71,294	1,201154
71,502	1,202799
71,710	1,202470
71,918	1,202799
72,126	1,203785
72,334	1,204114
72,542	1,205101
72,750	1,204443
72,958	1,205759
73,166	1,205430
73,374	1,206416
73,582	1,207403
73,790	1,207732
73,997	1,207732
74,205	1,207403
74,413	1,208061
74,621	1,208719
74,829	1,208390
75,037	1,211021
75,244	1,209705
75,452	1,211350
75,660	1,211678
75,868	1,210692
76,075	1,211678
76,283	1,212007
76,491	1,211350
76,699	1,212994
76,907	1,214967
77,115	1,213323
77,323	1,214638
77,531	1,215296
77,739	1,215625
77,946	1,215296
78,154	1,215625
78,361	1,217269
78,569	1,216940
78,777	1,216940
78,985	1,217598
79,193	1,218585
79,401	1,218585
79,609	1,218914
79,816	1,219572
80,024	1,219900
80,232	1,220558
80,440	1,221216
80,648	1,221216
80,855	1,221545
81,063	1,220887
81,271	1,222203
81,479	1,223847
81,687	1,223847
81,895	1,223847
82,103	1,224176
82,311	1,225491
82,519	1,226149
82,727	1,224834
82,935	1,225162
83,143	1,226478
83,351	1,226807
83,559	1,226807
83,767	1,227465
83,975	1,228451
84,183	1,228780
84,391	1,227793
84,599	1,229109
84,807	1,230096
85,015	1,230753
85,223	1,229767
85,431	1,231411
85,639	1,231411
85,847	1,232398
86,054	1,232398
86,262	1,232398
86,470	1,232069
86,677	1,233713
86,884	1,234371
87,092	1,235029
87,299	1,234700
87,507	1,235029
87,714	1,235687
87,921	1,235358
88,129	1,235029
88,336	1,237331
88,544	1,236673
88,751	1,236673
88,959	1,237989
89,167	1,239304
89,374	1,239304
89,582	1,243909
89,790	1,186355
89,998	1,165964
90,206	1,078811
90,413	0,680210
90,621	0,682183
90,829	0,682512
91,037	0,683170
91,244	0,683828
91,452	0,684814
91,660	0,684485
91,868	0,683828
92,076	0,685472
92,283	0,685143
92,490	0,685143
92,698	0,686459
92,906	0,687116
93,113	0,686459
93,321	0,688432
93,528	0,688103
93,736	0,689090
93,944	0,687774
94,152	0,689747
94,359	0,689090
94,567	0,689090
94,775	0,691063
94,983	0,690734
95,191	0,691392
95,399	0,691721
95,607	0,691721
95,814	0,692378
96,022	0,692378
96,230	0,871618
96,437	1,082758
96,645	0,979161
96,853	0,973241
97,060	0,975214
97,268	0,972583
97,476	0,976530
97,684	0,975543
97,891	0,976201
98,099	0,976530
98,307	0,976530
98,515	0,977188
98,723	0,976530
98,930	0,977517
99,138	0,978174
99,346	0,977845
99,554	0,978832
99,762	0,979490
99,970	0,979819
100,177	0,979819
100,385	0,980805
100,592	0,982779
100,800	0,981134
101,008	0,981134
101,217	0,982779
101,425	0,982450
101,633	0,982779
101,841	0,983765
102,049	0,984423
102,257	0,984423
102,465	0,985410
102,673	0,984752
102,881	0,983765
103,089	0,985410
103,297	0,987054
103,505	0,986725
103,713	0,985410
103,920	0,987383
104,128	0,988041
104,336	0,987712
104,544	0,987712
104,752	0,988698
104,960	0,989685
105,168	0,988698
105,376	0,990014
105,584	0,990014
105,791	0,992316
105,999	0,991001
106,207	0,991001
106,415	0,991329
106,623	0,992645
106,831	0,992645
107,039	0,993303
107,247	0,993961
107,455	0,992974
107,663	0,992974
107,871	0,994618
108,079	0,993961
108,287	0,994947
108,495	0,996920
108,703	0,996592
108,911	0,996263
109,119	0,997578
109,327	0,996920
109,535	0,997907
109,742	0,998236
109,950	0,998565
110,158	0,998565
110,366	0,999223
110,574	0,999223
110,782	0,999880
110,990	1,001854
111,197	1,001196
111,405	1,001196
111,613	1,000867
111,821	1,002182
112,028	1,002840
112,236	1,003169
112,444	1,002511
112,652	1,004156
112,860	1,005142
113,068	1,003827
113,276	1,003498
113,484	1,006129
113,692	1,005800
113,900	1,006129
114,108	1,006787
114,316	1,006129
114,524	1,007116
114,732	1,008102
114,940	1,008102
115,147	1,008102
115,354	1,008431
115,562	1,008102
115,770	1,008760
115,978	1,009089
116,186	1,009747
116,394	1,010404
116,601	1,010733
116,809	1,012049
117,017	1,011720
117,226	1,011391
117,434	1,012378
117,642	1,011720
117,849	1,014022
118,057	1,013035
118,265	1,014351
118,473	1,014680
118,681	1,014022
118,889	1,015667
119,097	1,014680
119,305	1,015667
119,512	1,017311
119,720	1,016982
119,928	1,017311
120,135	1,016982
120,343	1,016982
120,551	1,018298
120,759	1,017311
120,967	1,018298
121,175	1,019284
121,383	1,018626
121,591	1,019942
121,799	1,019613
122,007	1,020271
122,215	1,019613
122,423	1,021586
122,631	1,021257
122,839	1,022244
123,046	1,022244
123,254	1,022244
123,462	1,022573
123,670	1,023889
123,878	1,023231
124,086	1,024875
124,294	1,025204
124,501	1,024546
124,709	1,024217
124,917	1,025862
125,125	1,026520
125,333	1,025533
125,540	1,026520
125,748	1,026520
125,956	1,026848
126,163	1,027506
126,371	1,028164
126,579	1,029151
126,787	1,184053
126,994	0,753879
127,202	0,749932
127,410	0,751248
127,618	0,751906
127,826	0,751248
128,034	0,751906
128,242	0,752234
128,450	0,752892
128,658	0,752563
128,866	0,753550
129,074	0,752234
129,282	0,753879
129,490	0,754208
129,697	0,753879
129,904	0,754537
130,112	0,755194
130,320	0,755852
130,528	0,756181
130,736	0,755523
130,944	0,756839
131,152	0,756181
131,360	0,756510
131,567	0,753221
131,775	0,758483
131,983	0,757825
132,191	0,843334
132,399	1,207732
132,607	1,033426
132,815	0,869973
133,022	0,796304
133,229	1,078811
133,437	0,871289
133,645	0,872275
133,853	0,872933
134,061	0,873591
134,269	0,873591
134,476	0,874906
134,684	0,875893
134,892	0,875235
135,100	0,875235
135,307	0,875893
135,515	0,876551
135,723	0,876880
135,931	0,876880
136,139	0,878195
136,347	0,878853
136,554	0,876551
136,762	0,877866
136,970	0,880168
137,178	0,879840
137,386	0,880168
137,594	0,880168
137,801	0,880168
138,009	0,880826
138,216	0,881484
138,424	0,881813
138,632	0,882142
138,840	0,882142
139,048	0,881484
139,255	0,882799
139,463	0,884115
139,671	0,883128
139,879	0,883786
140,087	0,884444
140,295	0,884444
140,502	0,884115
140,709	0,884444
140,917	0,886417
141,125	0,886746
141,333	0,885759
141,541	0,887075
141,749	0,886417
141,957	0,887404
142,165	0,888061
142,373	0,888061
142,580	0,888061
142,788	0,888719
142,996	0,889706
143,203	0,888061
143,411	0,890035
143,619	0,890035
143,827	0,889706
144,035	0,890693
144,243	0,891021
144,451	0,891021
144,658	0,891021
144,866	0,892337
145,074	0,892995
145,281	0,892337
145,489	0,893981
145,697	0,892995
145,904	0,892666
146,111	0,893324
146,319	0,894968
146,527	0,895955
146,735	0,894639
146,943	0,894639
147,151	0,895955
147,359	0,896612
147,567	0,896283
147,775	0,896283
147,983	0,897599
148,191	0,897270
148,399	0,897270
148,606	0,896941
148,814	0,897928
149,022	0,897599
149,230	0,898914
149,438	0,898257
149,646	0,899243
149,854	0,899243
150,061	0,900230
150,269	0,900230
150,477	0,900888
150,685	0,899901
150,893	0,900888
151,101	0,901217
151,308	0,901546
151,515	0,900888
151,723	0,902203
151,930	0,902203
152,138	0,901217
152,346	0,903848
152,554	0,902861
152,762	0,903519
152,970	0,903848
153,178	0,903519
153,386	0,905492
153,594	0,905163
153,802	0,904177
154,010	0,904834
154,218	0,904834
154,425	0,905492
154,633	0,905163
154,840	0,906808
155,048	0,907136
155,256	0,906808
155,463	0,907136
155,671	0,907465
155,879	0,908452
156,086	0,907794
156,294	0,908123
156,502	0,909110
156,709	0,909767
156,917	0,909767
157,125	0,910754
157,332	0,910425
157,540	0,911412
157,748	0,911741
157,956	0,911412
158,164	0,913056
158,372	0,913385
158,580	0,912399
158,788	0,912070
158,996	0,913385
159,204	0,913385
159,412	0,913385
159,620	0,913714
159,828	0,914701
160,036	0,914043
160,244	0,914701
160,452	0,915687
160,660	0,916016
160,867	0,915687
161,075	0,915687
161,283	0,916345
161,490	0,916674
161,698	0,917332
161,906	0,916674
162,114	0,917661
162,321	0,918976
162,529	0,917661
162,737	0,918318
162,945	1,035399
163,153	1,112686
163,361	1,213981
163,568	0,943971
163,776	0,931145
163,984	0,926869
164,192	0,926869
164,399	0,925554
164,607	0,923580
164,815	0,922265
165,022	0,921278
165,230	0,921278
165,437	0,919305
165,644	0,918647
165,852	1,203128
166,060	1,455707
166,268	1,041977
166,476	0,974228
166,684	0,974557
166,892	0,973570
167,100	0,973241
167,308	0,973570
167,516	0,973241
167,724	0,972912
167,932	0,973570
168,140	0,972583
168,348	0,971597
168,556	0,971597
168,763	0,972255
168,971	0,971926
169,179	0,972255
169,387	0,971597
169,594	0,971597
169,802	0,970939
170,010	0,971597
170,218	0,970281
170,426	0,971926
170,634	0,971268
170,842	0,970939
171,050	0,970939
171,258	0,972255
171,466	0,972583
171,673	0,971926
171,881	0,971597
172,089	0,972255
172,297	0,971597
172,505	0,972255
172,713	0,972255
172,921	0,972255
173,129	0,971926
173,337	0,971926
173,545	0,973570
173,753	0,973570
173,960	0,973570
174,168	0,973241
174,375	0,973899
174,582	0,973241
174,790	0,973241
174,997	0,974228
175,205	0,973241
175,413	0,974228
175,621	0,973899
175,828	0,974228
176,036	0,974557
176,244	0,974557
176,451	0,974557
176,659	0,975872
176,867	0,974886
177,075	0,976201
177,283	0,976530
177,491	0,976201
177,699	0,974886
177,906	0,976201
178,114	0,975543
178,322	0,976530
178,529	0,976859
178,737	0,977517
178,945	0,977188
179,153	0,978832
179,361	0,976201
179,569	0,977517
179,777	0,977517
179,985	0,978832
180,192	0,978174
180,399	1,040332
180,607	0,927527
180,815	0,923580
181,023	0,923909
181,232	0,923580
181,440	0,924567
181,648	0,923580
181,856	0,924567
182,064	0,923580
182,272	0,924896
182,480	0,924238
182,688	0,924896
182,895	0,924238
183,103	0,924567
183,311	0,924567
183,519	0,926211
183,727	0,925225
183,935	0,925554
184,143	0,924896
184,350	0,926540
184,558	0,926869
184,766	0,925225
184,974	0,925554
185,182	0,924567
185,389	1,021586
185,597	0,961730
185,805	0,954495
186,012	0,955811
186,220	0,955482
186,427	0,956139
186,634	0,955811
186,841	0,956139
187,048	0,956468
187,255	0,958442
187,462	0,958113
187,670	0,958442
187,878	0,958113
188,085	0,958770
188,292	0,959428
188,500	0,959757
188,708	0,958442
188,916	0,960415
189,124	0,960415
189,332	0,960086
189,539	0,960415
189,746	0,960744
189,953	0,960415
190,161	0,960744
190,369	0,961401
190,577	0,962059
190,785	0,961073
190,992	0,962717
191,199	0,962717
191,407	0,960744
191,614	0,963375
191,822	0,962388
192,030	0,962717
192,237	0,962717
192,445	0,962059
192,653	0,964033
192,861	0,963704
193,068	0,964033
193,276	0,964690
193,484	0,963375
193,691	0,965019
193,899	0,964361
194,107	0,965677
194,315	0,965677
194,523	0,965348
194,731	0,966335
194,939	0,966335
195,146	0,966006
195,354	0,968308
195,562	0,966992
195,770	0,966335
195,978	0,966335
196,186	0,966335
196,394	0,967650
196,602	0,967650
196,810	0,967321
197,018	0,966992
197,226	0,969295
197,434	0,968966
197,642	0,968966
197,850	0,969295
198,058	0,968637
198,265	0,968637
198,473	0,969952
198,681	0,969952
198,889	0,970610
199,097	0,968966
199,304	0,970281
199,512	0,970610
199,720	0,971597
199,928	0,971268
200,136	0,971268
200,344	0,970939
200,551	0,971268
200,759	0,970939
200,967	0,968637
201,175	0,974886
201,383	0,966992
201,591	0,966664
201,799	0,988698
202,008	1,013364
202,216	1,013364
202,423	1,092295
202,630	0,945615
202,838	0,946273
203,047	0,945615
203,254	0,945615
203,461	0,946273
203,669	0,945286
203,876	0,945944
204,084	0,945944
204,292	0,885430
204,500	0,859449
204,708	0,973241
204,917	0,874906
205,125	0,922594
205,333	0,960415
205,541	0,960744
205,749	0,960744
205,956	0,960415
206,164	0,961073
206,372	0,961073
206,580	0,961073
206,788	0,962059
206,996	0,963375
207,204	0,962059
207,412	0,962388
207,619	0,963375
207,827	0,962388
208,035	0,963046
208,243	0,964033
208,451	0,964361
208,658	0,963046
208,866	0,964033
209,074	0,964033
209,282	0,964690
209,490	0,966335
209,697	0,965677
209,904	0,965677
210,111	0,966335
210,319	0,966006
210,526	0,966335
210,734	0,966006
210,942	0,967321
211,150	0,966992
211,358	0,967321
211,566	0,967650
211,774	0,967321
211,982	0,967979
212,189	0,967979
212,397	0,968637
212,605	0,967650
212,813	0,969295
213,020	0,968966
213,228	0,969295
213,436	0,969623
213,644	0,968308
213,852	0,969623
214,060	0,969952
214,267	1,006129
214,475	0,956468
214,683	0,960744
214,891	0,959099
215,099	0,960744
215,307	0,961073
215,515	0,960415
215,723	0,960744
215,931	0,960744
216,139	0,961401
216,347	0,961401
216,555	0,962059
216,763	0,961730
216,970	0,961073
217,178	0,961073
217,386	0,962388
217,594	0,962388
217,802	0,962717
218,010	0,963375
218,218	0,963046
218,426	0,963046
218,634	0,963375
218,842	0,963375
219,050	0,963046
219,257	0,964033
219,465	0,964361
219,673	0,965019
219,881	0,965348
220,089	0,965019
220,297	0,965677
220,505	0,964690
220,713	0,966335
220,921	0,966992
221,128	0,965348
